File: data/mind_reading.csv
wavenumber,intensity
301.04,26
315.398,46
329.732,48
344.042,49
358.332,52
372.597,62
386.839,55
401.058,62
415.256,48
429.429,58
443.581,67
457.708,65
471.815,61
485.899,53
499.96,54
513.999,55
528.014,44
542.008,54
555.979,62
569.928,49
583.854,55
597.759,63
611.642,74
625.503,67
639.342,44
653.158,48
666.953,50
680.727,64
694.476,55
708.204,62
721.912,52
735.599,54
749.265,53
762.906,50
776.527,63
790.127,70
803.705,56
817.262,56
830.797,61
844.312,51
857.806,76
871.278,53
884.728,63
898.157,73
911.567,64
924.954,42
938.32,70
951.665,64
964.991,60
978.295,61
991.578,57
1004.84,69
1018.08,65
1031.3,70
1044.51,69
1057.68,96
1070.84,81
1083.98,79
1097.1,64
1110.2,70
1123.28,95
1136.34,80
1149.37,76
1162.39,66
1175.39,71
1188.37,72
1201.32,81
1214.26,81
1227.18,68
1240.07,78
1252.95,82
1265.81,84
1278.65,76
1291.46,128
1304.26,101
1317.04,76
1329.8,67
1342.54,82
1355.26,68
1367.96,100
1380.64,81
1393.3,86
1405.95,77
1418.57,112
1431.17,125
1443.76,166
1456.32,127
1468.87,114
1481.4,98
1493.9,95
1506.39,85
1518.86,81
1531.31,105
1543.74,102
1556.16,96
1568.55,90
1580.92,98
1593.28,97
1605.62,78
1617.94,89
1630.24,89
1642.52,98
1654.78,98
1667.03,88
1679.26,96
1691.46,100
1703.65,94
1715.83,106
1727.98,98
1740.11,99
1752.23,94
1764.33,86
1776.41,102
1788.47,121
1800.51,116
1812.54,102
1824.55,107
1836.54,109
1848.51,114
1860.46,108
1872.4,105
1884.32,109
1896.22,102
1908.1,95
1919.96,110
1931.81,108
1943.36,93
1955.23,109
1967.08,112
1978.91,97
1990.72,125
2002.52,122
2014.29,105
2026.05,114
2037.8,112
2049.52,116
2061.23,108
2072.93,108
2084.6,126
2096.26,129
2107.9,135
2119.52,124
2131.13,120
2142.72,128
2154.29,133
2165.85,137
2177.39,123
2188.91,128
2200.42,119
2211.9,135
2223.38,118
2234.83,137
2246.27,103
2257.69,135
2269.1,131
2280.49,124
2291.86,129
2303.21,118
2314.55,120
2325.88,129
2337.18,118
2348.47,108
2359.75,104
2371,96
2382.25,111
2393.47,101
2404.68,99
2415.87,103
2427.05,107
2438.21,103
2449.36,102
2460.48,98
2471.6,107
2482.69,112
2493.77,112
2504.84,101
2515.89,99
2526.92,96
2537.94,117
2548.94,96
2559.93,100
2570.9,101
2581.85,105
2592.79,101
2603.72,93
2614.62,101
2625.51,85
2636.39,98
2647.25,114
2658.1,81
2668.93,89
2679.74,96
2690.54,102
2701.33,104
2712.1,116
2722.85,121
2733.59,109
2744.31,104
2755.02,97
2765.71,98
2776.39,97
2787.05,102
2797.7,102
2808.33,101
2818.95,119
2829.55,132
2840.14,303
2850.71,465
2861.27,333
2871.81,305
2882.34,816
2892.86,352
2903.35,308
2913.84,238
2924.31,199
2934.76,206
2945.2,148
2955.63,113
2966.04,105
2976.43,97
2986.81,95
2997.18,96
3007.53,94
3017.87,93
3028.2,92
3038.5,72
3048.8,87
3059.08,85
3069.35,82
3079.6,87
3089.83,82
3100.06,83
3110.27,83
3120.46,83
3130.64,77
3140.81,77
3150.96,77
3161.1,81
3171.23,75
3180.38,77
3190.52,71
3198.12,67